# TIME w/ LS370, calibrated against RU3000 (2018 calibration against X107797)
# Calibration data taken from 20200829 to 20201006
# Constrained by data from 0.267K to 267.5K, extrapolated elsewhere
# Calibration generated 2020-10-20 17:43:42.307828, verified monotonic
# R[Ohms] T[K]
313.461 325
313.499 324
313.539 323
313.580 322
313.622 321
313.665 320
313.710 319
313.756 318
313.804 317
313.853 316
313.903 315
313.954 314
314.007 313
314.061 312
314.117 311
314.173 310
314.232 309
314.291 308
314.352 307
314.414 306
314.477 305
314.542 304
314.608 303
314.675 302
314.744 301
314.814 300
314.885 299
314.958 298
315.032 297
315.107 296
315.184 295
315.262 294
315.341 293
315.422 292
315.504 291
315.587 290
315.671 289
315.757 288
315.844 287
315.933 286
316.023 285
316.114 284
316.207 283
316.300 282
316.396 281
316.492 280
316.590 279
316.689 278
316.789 277
316.891 276
316.994 275
317.099 274
317.204 273
317.311 272
317.420 271
317.529 270
317.641 269
317.753 268
317.825 267
317.960 266
318.095 265
318.230 264
318.365 263
318.500 262
318.635 261
318.770 260
318.905 259
319.041 258
319.176 257
319.311 256
319.446 255
319.581 254
319.716 253
319.851 252
319.986 251
320.121 250
320.256 249
320.391 248
320.539 247
320.699 246
320.859 245
321.020 244
321.180 243
321.340 242
321.500 241
321.661 240
321.821 239
321.981 238
322.141 237
322.302 236
322.462 235
322.622 234
322.782 233
322.942 232
323.103 231
323.263 230
323.423 229
323.583 228
323.744 227
323.904 226
324.064 225
324.224 224
324.385 223
324.545 222
324.705 221
324.865 220
325.026 219
325.186 218
325.346 217
325.506 216
325.667 215
325.827 214
325.987 213
326.147 212
326.308 211
326.468 210
326.661 209
326.891 208
327.057 207
327.223 206
327.440 205
327.686 204
327.909 203
328.235 202
328.392 201
328.543 200
328.731 199
328.881 198
329.083 197
329.227 196
329.350 195
329.588 194
329.742 193
329.824 192
330.009 191
330.116 190
330.209 189
330.343 188
330.572 187
330.728 186
330.905 185
331.135 184
331.379 183
331.641 182
331.917 181
332.130 180
332.266 179
332.466 178
332.695 177
332.919 176
333.185 175
333.366 174
333.502 173
333.682 172
333.858 171
334.078 170
334.347 169
334.571 168
334.743 167
335.001 166
335.306 165
335.505 164
335.725 163
335.950 162
336.039 161
336.314 160
336.587 159
336.922 158
337.267 157
337.497 156
337.682 155
337.946 154
338.255 153
338.550 152
338.805 151
339.022 150
339.263 149
339.521 148
339.785 147
340.008 146
340.277 145
340.628 144
340.987 143
341.285 142
341.540 141
341.802 140
342.138 139
342.487 138
342.800 137
343.136 136
343.454 135
343.775 134
344.093 133
344.375 132
344.766 131
344.983 130
345.266 129
345.606 128
345.974 127
346.293 126
346.530 125
346.782 124
347.133 123
347.461 122
347.767 121
348.165 120
348.533 119
348.891 118
349.283 117
349.679 116
350.067 115
350.495 114
350.910 113
351.273 112
351.644 111
352.093 110
352.475 109
352.890 108
353.335 107
353.780 106
354.203 105
354.618 104
355.057 103
355.458 102
355.902 101
356.420 100
356.942 99
357.477 98
357.989 97
358.511 96
359.076 95
359.600 94
360.079 93
360.539 92
361.041 91
361.549 90
362.057 89
362.693 88
363.314 87
363.921 86
364.539 85
365.186 84
365.841 83
366.475 82
367.145 81
367.857 80
368.494 79
369.196 78
369.945 77
370.579 76
371.245 75
372.033 74
372.831 73
373.548 72
374.356 71
375.262 70
375.420 69.8
375.562 69.6
375.712 69.4
375.861 69.2
375.983 69
376.169 68.8
376.327 68.6
376.507 68.4
376.771 68.2
376.937 68
377.087 67.8
377.238 67.6
377.388 67.4
377.538 67.2
377.689 67
377.839 66.8
377.990 66.6
378.140 66.4
378.290 66.2
378.441 66
378.577 65.8
378.744 65.6
378.976 65.4
379.157 65.2
379.275 65
379.379 64.8
379.488 64.6
379.631 64.4
379.825 64.2
380.016 64
380.239 63.8
380.412 63.6
380.528 63.4
380.669 63.2
380.928 63
381.156 62.8
381.336 62.6
381.542 62.4
381.846 62.2
382.147 62
382.367 61.8
382.634 61.6
382.850 61.4
383.041 61.2
383.224 61
383.421 60.8
383.621 60.6
383.796 60.4
383.997 60.2
384.196 60
384.368 59.8
384.575 59.6
384.768 59.4
384.915 59.2
385.090 59
385.332 58.8
385.565 58.6
385.732 58.4
385.882 58.2
385.986 58
386.130 57.8
386.324 57.6
386.468 57.4
386.809 57.2
387.055 57
387.270 56.8
387.502 56.6
387.711 56.4
387.911 56.2
388.199 56
388.432 55.8
388.601 55.6
388.778 55.4
389.019 55.2
389.274 55
389.425 54.8
389.590 54.6
389.741 54.4
389.894 54.2
390.137 54
390.506 53.8
390.784 53.6
390.993 53.4
391.276 53.2
391.563 53
392.030 52.8
392.148 52.6
392.306 52.4
392.523 52.2
392.746 52
393.039 51.8
393.268 51.6
393.704 51.4
393.996 51.2
394.228 51
394.403 50.8
394.546 50.6
394.750 50.4
395.083 50.2
395.340 50
395.539 49.8
395.858 49.6
396.121 49.4
396.318 49.2
396.503 49
396.892 48.8
397.276 48.6
397.601 48.4
398.052 48.2
398.449 48
398.651 47.8
398.867 47.6
399.125 47.4
399.323 47.2
399.502 47
399.737 46.8
399.954 46.6
400.200 46.4
400.543 46.2
400.872 46
401.227 45.8
401.453 45.6
401.734 45.4
402.019 45.2
402.271 45
402.507 44.8
402.800 44.6
403.136 44.4
403.442 44.2
403.727 44
404.100 43.8
404.508 43.6
404.824 43.4
405.207 43.2
405.661 43
406.037 42.8
406.342 42.6
406.609 42.4
406.907 42.2
407.329 42
407.621 41.8
407.858 41.6
408.147 41.4
408.523 41.2
408.856 41
409.162 40.8
409.538 40.6
409.937 40.4
410.381 40.2
410.689 40
410.984 39.8
411.310 39.6
411.649 39.4
411.985 39.2
412.299 39
412.722 38.8
413.279 38.6
413.697 38.4
414.145 38.2
414.541 38
414.910 37.8
415.282 37.6
415.731 37.4
416.154 37.2
416.528 37
416.814 36.8
417.218 36.6
417.661 36.4
418.006 36.2
418.342 36
418.675 35.8
419.113 35.6
419.491 35.4
419.830 35.2
420.166 35
420.520 34.8
421.037 34.6
421.544 34.4
422.042 34.2
422.550 34
423.123 33.8
423.535 33.6
424.006 33.4
424.553 33.2
425.019 33
425.487 32.8
425.956 32.6
426.441 32.4
426.948 32.2
427.459 32
427.899 31.8
428.367 31.6
428.884 31.4
429.405 31.2
429.923 31
430.428 30.8
430.939 30.6
431.454 30.4
431.971 30.2
432.489 30
432.752 29.9
433.014 29.8
433.275 29.7
433.536 29.6
433.796 29.5
434.057 29.4
434.337 29.3
434.619 29.2
434.901 29.1
435.208 29
435.544 28.9
435.881 28.8
436.205 28.7
436.518 28.6
436.830 28.5
437.186 28.4
437.588 28.3
437.990 28.2
438.357 28.1
438.720 28
439.087 27.9
439.496 27.8
439.905 27.7
440.292 27.6
440.649 27.5
441.005 27.4
441.325 27.3
441.587 27.2
441.848 27.1
442.109 27
442.375 26.9
442.678 26.8
442.981 26.7
443.284 26.6
443.588 26.5
443.894 26.4
444.200 26.3
444.506 26.2
444.814 26.1
445.124 26
445.434 25.9
445.744 25.8
446.064 25.7
446.388 25.6
446.712 25.5
447.036 25.4
447.390 25.3
447.759 25.2
448.128 25.1
448.520 25
448.999 24.9
449.477 24.8
449.937 24.7
450.380 24.6
450.823 24.5
451.234 24.4
451.580 24.3
451.927 24.2
452.274 24.1
452.607 24
452.907 23.9
453.208 23.8
453.508 23.7
453.809 23.6
454.183 23.5
454.603 23.4
455.024 23.3
455.446 23.2
455.919 23.1
456.393 23
456.867 22.9
457.297 22.8
457.713 22.7
458.129 22.6
458.540 22.5
458.904 22.4
459.268 22.3
459.632 22.2
459.996 22.1
460.412 22
460.858 21.9
461.305 21.8
461.751 21.7
462.266 21.6
462.785 21.5
463.305 21.4
463.843 21.3
464.388 21.2
464.933 21.1
465.455 21
465.954 20.9
466.454 20.8
466.954 20.7
467.442 20.6
467.928 20.5
468.415 20.4
468.904 20.3
469.404 20.2
469.904 20.1
470.405 20
470.902 19.9
471.396 19.8
471.891 19.7
472.385 19.6
472.905 19.5
473.443 19.4
473.981 19.3
474.519 19.2
475.059 19.1
475.600 19
476.141 18.9
476.682 18.8
477.225 18.7
477.767 18.6
478.310 18.5
478.878 18.4
479.458 18.3
480.038 18.2
480.622 18.1
481.260 18
481.900 17.9
482.538 17.8
483.197 17.7
483.859 17.6
484.521 17.5
485.200 17.4
485.891 17.3
486.582 17.2
487.249 17.1
487.890 17
488.530 16.9
489.171 16.8
489.824 16.7
490.478 16.6
491.131 16.5
491.849 16.4
492.599 16.3
493.348 16.2
494.153 16.1
494.971 16
495.786 15.9
496.577 15.8
497.367 15.7
498.151 15.6
498.922 15.5
499.692 15.4
500.435 15.3
501.150 15.2
501.866 15.1
502.579 15
503.289 14.9
503.999 14.8
504.722 14.7
505.460 14.6
506.197 14.5
506.979 14.4
507.790 14.3
508.605 14.2
509.526 14.1
510.450 14
511.407 13.9
512.371 13.8
513.332 13.7
514.293 13.6
515.267 13.5
516.247 13.4
517.271 13.3
518.311 13.2
519.370 13.1
520.425 13
521.466 12.9
522.531 12.8
523.602 12.7
524.612 12.6
525.609 12.5
526.593 12.4
527.645 12.3
528.694 12.2
529.741 12.1
530.892 12
532.160 11.9
533.296 11.8
534.459 11.7
535.744 11.6
537.006 11.5
538.209 11.4
539.557 11.3
540.904 11.2
542.207 11.1
543.482 11
544.779 10.9
546.320 10.8
547.855 10.7
549.244 10.6
550.533 10.5
552.001 10.4
553.449 10.3
554.972 10.2
556.368 10.1
557.765 10
559.457 9.9
561.125 9.8
562.823 9.7
564.499 9.6
566.192 9.5
568.116 9.4
569.985 9.3
571.819 9.2
573.638 9.1
575.479 9
577.372 8.9
579.378 8.8
581.407 8.7
583.334 8.6
585.370 8.5
587.438 8.4
589.380 8.3
591.322 8.2
593.324 8.1
595.364 8
595.699 7.98
596.002 7.96
596.411 7.94
596.845 7.92
597.302 7.9
597.929 7.88
598.513 7.86
599.046 7.84
599.602 7.82
600.202 7.8
600.946 7.78
601.530 7.76
602.108 7.74
602.705 7.72
603.228 7.7
603.853 7.68
604.469 7.66
605.075 7.64
605.741 7.62
606.386 7.6
606.911 7.58
607.404 7.56
607.811 7.54
608.225 7.52
608.832 7.5
609.308 7.48
609.664 7.46
610.203 7.44
610.652 7.42
611.075 7.4
611.545 7.38
611.946 7.36
612.417 7.34
612.936 7.32
613.546 7.3
614.015 7.28
614.409 7.26
614.865 7.24
615.228 7.22
615.680 7.2
616.210 7.18
616.683 7.16
617.145 7.14
617.637 7.12
617.995 7.1
618.313 7.08
618.768 7.06
619.386 7.04
619.904 7.02
620.329 7
621.043 6.98
621.641 6.96
622.213 6.94
623.101 6.92
623.845 6.9
624.488 6.88
625.204 6.86
625.889 6.84
626.539 6.82
627.148 6.8
627.898 6.78
628.692 6.76
629.452 6.74
630.156 6.72
630.732 6.7
631.316 6.68
632.021 6.66
632.764 6.64
633.464 6.62
634.105 6.6
634.813 6.58
635.485 6.56
636.105 6.54
636.710 6.52
637.259 6.5
637.917 6.48
638.700 6.46
639.413 6.44
639.982 6.42
640.635 6.4
641.224 6.38
641.900 6.36
642.758 6.34
643.483 6.32
644.137 6.3
644.715 6.28
645.365 6.26
646.170 6.24
646.861 6.22
647.423 6.2
648.043 6.18
648.655 6.16
649.327 6.14
650.009 6.12
650.590 6.1
651.422 6.08
652.252 6.06
652.963 6.04
653.834 6.02
654.732 6
655.740 5.98
656.852 5.96
657.983 5.94
659.159 5.92
660.240 5.9
661.087 5.88
661.784 5.86
662.506 5.84
663.313 5.82
664.145 5.8
664.984 5.78
665.823 5.76
666.559 5.74
667.256 5.72
668.051 5.7
668.922 5.68
669.681 5.66
670.466 5.64
671.238 5.62
672.036 5.6
672.841 5.58
673.649 5.56
674.585 5.54
675.347 5.52
675.957 5.5
676.776 5.48
677.612 5.46
678.314 5.44
679.256 5.42
680.166 5.4
680.988 5.38
681.825 5.36
682.802 5.34
683.825 5.32
684.628 5.3
685.573 5.28
686.562 5.26
687.492 5.24
688.407 5.22
689.291 5.2
690.210 5.18
691.169 5.16
692.090 5.14
693.054 5.12
694.026 5.1
694.907 5.08
695.792 5.06
696.695 5.04
697.641 5.02
698.688 5
699.784 4.98
700.834 4.96
701.881 4.94
702.852 4.92
703.881 4.9
704.911 4.88
705.885 4.86
706.930 4.84
707.943 4.82
708.982 4.8
710.108 4.78
711.202 4.76
712.219 4.74
713.266 4.72
714.392 4.7
715.679 4.68
716.923 4.66
718.094 4.64
719.429 4.62
720.765 4.6
721.867 4.58
723.070 4.56
724.437 4.54
725.554 4.52
726.648 4.5
727.896 4.48
729.195 4.46
730.372 4.44
731.504 4.42
732.703 4.4
734.159 4.38
735.813 4.36
737.374 4.34
738.902 4.32
740.373 4.3
741.739 4.28
743.050 4.26
744.503 4.24
745.818 4.22
746.997 4.2
748.319 4.18
749.644 4.16
750.946 4.14
752.229 4.12
753.582 4.1
755.134 4.08
756.881 4.06
758.525 4.04
760.121 4.02
761.751 4
763.241 3.98
764.855 3.96
766.538 3.94
768.021 3.92
769.621 3.9
771.355 3.88
772.899 3.86
774.505 3.84
776.265 3.82
777.900 3.8
779.431 3.78
781.018 3.76
782.706 3.74
784.390 3.72
785.940 3.7
787.650 3.68
789.500 3.66
791.305 3.64
793.310 3.62
795.309 3.6
797.113 3.58
798.993 3.56
801.010 3.54
803.109 3.52
805.050 3.5
806.785 3.48
808.732 3.46
810.805 3.44
812.934 3.42
815.289 3.4
817.603 3.38
819.697 3.36
821.867 3.34
823.997 3.32
826.234 3.3
828.491 3.28
830.723 3.26
833.013 3.24
835.242 3.22
837.609 3.2
839.918 3.18
842.398 3.16
844.963 3.14
847.214 3.12
849.737 3.1
852.703 3.08
855.430 3.06
857.838 3.04
860.273 3.02
862.817 3
865.650 2.98
868.499 2.96
871.209 2.94
873.903 2.92
876.645 2.9
879.476 2.88
882.469 2.86
885.634 2.84
888.569 2.82
891.519 2.8
894.751 2.78
898.356 2.76
901.756 2.74
904.702 2.72
908.024 2.7
911.337 2.68
914.670 2.66
918.059 2.64
921.175 2.62
924.618 2.6
927.968 2.58
931.355 2.56
935.153 2.54
939.067 2.52
942.605 2.5
946.301 2.48
950.633 2.46
954.849 2.44
958.662 2.42
962.658 2.4
967.377 2.38
971.772 2.36
975.807 2.34
980.182 2.32
984.344 2.3
989.121 2.28
994.332 2.26
998.739 2.24
1003.363 2.22
1008.123 2.2
1012.883 2.18
1017.762 2.16
1021.998 2.14
1026.389 2.12
1031.808 2.1
1037.278 2.08
1043.088 2.06
1049.762 2.04
1055.611 2.02
1061.625 2
1065.028 1.99
1068.656 1.98
1072.240 1.97
1075.762 1.96
1079.438 1.95
1082.944 1.94
1086.359 1.93
1089.993 1.92
1093.691 1.91
1097.409 1.9
1101.135 1.89
1104.832 1.88
1108.358 1.87
1112.022 1.86
1115.795 1.85
1119.450 1.84
1123.016 1.83
1126.616 1.82
1130.166 1.81
1133.731 1.8
1137.485 1.79
1141.202 1.78
1144.940 1.77
1148.741 1.76
1152.500 1.75
1156.184 1.74
1159.913 1.73
1163.605 1.72
1167.147 1.71
1170.643 1.7
1174.346 1.69
1178.277 1.68
1182.419 1.67
1186.615 1.66
1190.849 1.65
1195.107 1.64
1199.402 1.63
1203.942 1.62
1208.510 1.61
1213.099 1.6
1217.739 1.59
1222.667 1.58
1227.681 1.57
1232.685 1.56
1237.846 1.55
1242.801 1.54
1247.789 1.53
1252.974 1.52
1258.566 1.51
1264.133 1.5
1269.802 1.49
1275.510 1.48
1280.854 1.47
1286.571 1.46
1292.662 1.45
1298.875 1.44
1305.135 1.43
1311.478 1.42
1317.585 1.41
1323.357 1.4
1329.755 1.39
1336.677 1.38
1343.634 1.37
1350.738 1.36
1357.798 1.35
1364.490 1.34
1371.050 1.33
1378.011 1.32
1385.653 1.31
1393.548 1.3
1401.676 1.29
1409.812 1.28
1417.700 1.27
1425.293 1.26
1432.978 1.25
1441.131 1.24
1449.786 1.23
1458.925 1.22
1468.351 1.21
1477.910 1.2
1486.909 1.19
1495.422 1.18
1504.392 1.17
1514.114 1.16
1524.238 1.15
1534.989 1.14
1545.802 1.13
1556.130 1.12
1566.473 1.11
1577.143 1.1
1588.303 1.09
1599.850 1.08
1611.870 1.07
1624.122 1.06
1636.313 1.05
1648.714 1.04
1661.227 1.03
1673.940 1.02
1687.193 1.01
1700.970 1
1714.824 0.99
1729.213 0.98
1744.133 0.97
1759.529 0.96
1775.065 0.95
1790.384 0.94
1806.191 0.93
1821.857 0.92
1838.365 0.91
1855.937 0.9
1873.936 0.89
1893.036 0.88
1911.942 0.87
1931.003 0.86
1950.148 0.85
1969.626 0.84
1991.056 0.83
2013.540 0.82
2037.608 0.81
2061.193 0.8
2063.626 0.799
2066.005 0.798
2068.337 0.797
2070.634 0.796
2072.911 0.795
2075.180 0.794
2077.457 0.793
2079.751 0.792
2082.061 0.791
2084.389 0.79
2086.734 0.789
2089.100 0.788
2091.488 0.787
2093.896 0.786
2096.322 0.785
2098.763 0.784
2101.218 0.783
2103.685 0.782
2106.164 0.781
2108.653 0.78
2111.151 0.779
2113.714 0.778
2116.261 0.777
2118.796 0.776
2121.322 0.775
2123.843 0.774
2126.363 0.773
2128.884 0.772
2131.409 0.771
2133.941 0.77
2136.483 0.769
2139.037 0.768
2141.607 0.767
2144.195 0.766
2146.805 0.765
2149.438 0.764
2152.102 0.763
2154.804 0.762
2157.535 0.761
2160.288 0.76
2163.058 0.759
2165.836 0.758
2168.619 0.757
2171.342 0.756
2174.024 0.755
2176.724 0.754
2179.438 0.753
2182.161 0.752
2184.890 0.751
2187.619 0.75
2190.347 0.749
2193.068 0.748
2195.782 0.747
2198.501 0.746
2201.230 0.745
2203.974 0.744
2206.739 0.743
2209.518 0.742
2212.299 0.741
2215.082 0.74
2217.869 0.739
2220.657 0.738
2223.447 0.737
2226.229 0.736
2228.992 0.735
2231.742 0.734
2234.484 0.733
2237.248 0.732
2240.060 0.731
2242.904 0.73
2245.774 0.729
2248.662 0.728
2251.563 0.727
2254.471 0.726
2257.382 0.725
2260.291 0.724
2263.195 0.723
2266.121 0.722
2269.070 0.721
2272.004 0.72
2274.939 0.719
2277.886 0.718
2280.860 0.717
2283.880 0.716
2286.965 0.715
2290.025 0.714
2293.089 0.713
2296.189 0.712
2299.326 0.711
2302.500 0.71
2305.713 0.709
2308.964 0.708
2312.254 0.707
2315.589 0.706
2318.989 0.705
2322.445 0.704
2325.951 0.703
2329.501 0.702
2333.089 0.701
2336.700 0.7
2340.267 0.699
2343.714 0.698
2347.155 0.697
2350.598 0.696
2354.047 0.695
2357.509 0.694
2360.989 0.693
2364.486 0.692
2367.987 0.691
2371.491 0.69
2375.002 0.689
2378.521 0.688
2382.044 0.687
2385.584 0.686
2389.171 0.685
2392.793 0.684
2396.351 0.683
2399.856 0.682
2403.325 0.681
2406.787 0.68
2410.282 0.679
2413.808 0.678
2417.285 0.677
2420.774 0.676
2424.272 0.675
2427.779 0.674
2431.293 0.673
2434.815 0.672
2438.344 0.671
2441.882 0.67
2445.429 0.669
2448.986 0.668
2452.558 0.667
2456.145 0.666
2459.752 0.665
2463.382 0.664
2467.039 0.663
2470.716 0.662
2474.396 0.661
2478.077 0.66
2481.756 0.659
2485.419 0.658
2489.065 0.657
2492.694 0.656
2496.379 0.655
2500.129 0.654
2503.924 0.653
2507.817 0.652
2511.724 0.651
2515.645 0.65
2519.579 0.649
2523.524 0.648
2527.476 0.647
2531.437 0.646
2535.415 0.645
2539.409 0.644
2543.420 0.643
2547.446 0.642
2551.488 0.641
2555.545 0.64
2559.617 0.639
2563.703 0.638
2567.805 0.637
2571.921 0.636
2576.066 0.635
2580.260 0.634
2584.513 0.633
2588.837 0.632
2593.228 0.631
2597.648 0.63
2602.092 0.629
2606.552 0.628
2611.021 0.627
2615.489 0.626
2619.947 0.625
2624.198 0.624
2628.409 0.623
2632.749 0.622
2637.058 0.621
2641.382 0.62
2645.724 0.619
2650.089 0.618
2654.480 0.617
2658.901 0.616
2663.349 0.615
2667.814 0.614
2672.301 0.613
2676.811 0.612
2681.348 0.611
2685.918 0.61
2690.526 0.609
2695.177 0.608
2699.874 0.607
2704.622 0.606
2709.418 0.605
2714.236 0.604
2719.068 0.603
2723.885 0.602
2728.699 0.601
2733.556 0.6
2738.439 0.599
2743.353 0.598
2748.306 0.597
2753.288 0.596
2758.307 0.595
2763.356 0.594
2768.432 0.593
2773.534 0.592
2778.661 0.591
2783.814 0.59
2788.980 0.589
2794.161 0.588
2799.372 0.587
2804.606 0.586
2809.840 0.585
2815.018 0.584
2820.127 0.583
2825.269 0.582
2830.449 0.581
2835.681 0.58
2840.954 0.579
2846.236 0.578
2851.533 0.577
2856.851 0.576
2862.162 0.575
2867.458 0.574
2872.754 0.573
2878.063 0.572
2883.395 0.571
2888.712 0.57
2894.026 0.569
2899.338 0.568
2904.657 0.567
2910.020 0.566
2915.330 0.565
2920.633 0.564
2925.983 0.563
2931.320 0.562
2936.660 0.561
2942.039 0.56
2947.377 0.559
2952.756 0.558
2958.259 0.557
2963.812 0.556
2969.426 0.555
2975.115 0.554
2980.796 0.553
2986.521 0.552
2992.234 0.551
2998.013 0.55
3003.828 0.549
3009.673 0.548
3015.686 0.547
3021.676 0.546
3027.512 0.545
3033.380 0.544
3039.397 0.543
3045.474 0.542
3051.487 0.541
3057.579 0.54
3063.710 0.539
3069.970 0.538
3076.347 0.537
3082.726 0.536
3089.009 0.535
3095.330 0.534
3101.690 0.533
3108.076 0.532
3114.729 0.531
3121.348 0.53
3128.041 0.529
3134.976 0.528
3141.701 0.527
3148.416 0.526
3155.239 0.525
3161.753 0.524
3168.557 0.523
3175.699 0.522
3182.510 0.521
3189.256 0.52
3196.267 0.519
3203.366 0.518
3210.425 0.517
3217.786 0.516
3225.187 0.515
3232.502 0.514
3240.012 0.513
3247.682 0.512
3255.482 0.511
3263.308 0.51
3271.004 0.509
3278.536 0.508
3285.974 0.507
3293.708 0.506
3301.673 0.505
3309.690 0.504
3317.617 0.503
3325.618 0.502
