# TIME w/ HKMBv2, calibrated against CX63841 (2018 Calibration Against CX107797)
# Calibration data taken from 20210311 to 20210601
# Constrained by data from 0.265K to 290.6K, extrapolated elsewhere
# Calibration generated 2021-06-01 13:43:07.379744, verified monotonic
# R[Ohms] T[K]
104.243 325
104.282 324
104.322 323
104.361 322
104.401 321
104.441 320
104.481 319
104.522 318
104.562 317
104.603 316
104.644 315
104.685 314
104.726 313
104.768 312
104.809 311
104.851 310
104.893 309
104.935 308
104.978 307
105.020 306
105.063 305
105.106 304
105.149 303
105.192 302
105.235 301
105.279 300
105.323 299
105.367 298
105.411 297
105.455 296
105.499 295
105.544 294
105.589 293
105.634 292
105.679 291
105.720 290
105.761 289
105.807 288
105.852 287
105.898 286
105.945 285
105.994 284
106.041 283
106.089 282
106.137 281
106.186 280
106.234 279
106.281 278
106.330 277
106.379 276
106.428 275
106.478 274
106.527 273
106.577 272
106.627 271
106.676 270
106.725 269
106.776 268
106.827 267
106.877 266
106.929 265
106.980 264
107.031 263
107.083 262
107.135 261
107.187 260
107.239 259
107.289 258
107.332 257
107.371 256
107.416 255
107.466 254
107.518 253
107.570 252
107.622 251
107.675 250
107.730 249
107.783 248
107.834 247
107.887 246
107.942 245
107.997 244
108.053 243
108.107 242
108.161 241
108.215 240
108.271 239
108.327 238
108.379 237
108.431 236
108.486 235
108.542 234
108.597 233
108.653 232
108.708 231
108.765 230
108.822 229
108.878 228
108.935 227
108.993 226
109.051 225
109.108 224
109.164 223
109.221 222
109.280 221
109.340 220
109.398 219
109.454 218
109.512 217
109.573 216
109.634 215
109.694 214
109.754 213
109.814 212
109.875 211
109.937 210
109.997 209
110.055 208
110.114 207
110.171 206
110.227 205
110.285 204
110.347 203
110.412 202
110.476 201
110.539 200
110.604 199
110.673 198
110.740 197
110.806 196
110.875 195
110.943 194
111.013 193
111.084 192
111.155 191
111.224 190
111.295 189
111.369 188
111.443 187
111.516 186
111.588 185
111.660 184
111.733 183
111.807 182
111.884 181
111.962 180
112.040 179
112.116 178
112.192 177
112.272 176
112.355 175
112.437 174
112.518 173
112.601 172
112.683 171
112.767 170
112.850 169
112.934 168
113.021 167
113.108 166
113.197 165
113.286 164
113.374 163
113.462 162
113.550 161
113.642 160
113.736 159
113.831 158
113.925 157
114.021 156
114.119 155
114.216 154
114.314 153
114.412 152
114.513 151
114.618 150
114.721 149
114.824 148
114.929 147
115.035 146
115.144 145
115.253 144
115.361 143
115.468 142
115.579 141
115.695 140
115.812 139
115.930 138
116.047 137
116.165 136
116.288 135
116.410 134
116.527 133
116.649 132
116.774 131
116.902 130
117.029 129
117.157 128
117.287 127
117.417 126
117.548 125
117.681 124
117.817 123
117.956 122
118.095 121
118.238 120
118.383 119
118.527 118
118.676 117
118.827 116
118.976 115
119.124 114
119.276 113
119.432 112
119.588 111
119.747 110
119.908 109
120.074 108
120.240 107
120.405 106
120.575 105
120.749 104
120.925 103
121.105 102
121.295 101
121.489 100
121.678 99
121.870 98
122.066 97
122.263 96
122.460 95
122.662 94
122.867 93
123.076 92
123.286 91
123.497 90
123.714 89
123.936 88
124.160 87
124.385 86
124.612 85
124.852 84
125.100 83
125.348 82
125.601 81
125.852 80
126.108 79
126.373 78
126.643 77
126.918 76
127.192 75
127.470 74
127.760 73
128.056 72
128.355 71
128.661 70
128.721 69.8
128.782 69.6
128.845 69.4
128.907 69.2
128.968 69
129.029 68.8
129.093 68.6
129.156 68.4
129.219 68.2
129.287 68
129.358 67.8
129.423 67.6
129.486 67.4
129.552 67.2
129.618 67
129.685 66.8
129.753 66.6
129.820 66.4
129.886 66.2
129.953 66
130.022 65.8
130.096 65.6
130.230 65.4
130.356 65.2
130.425 65
130.496 64.8
130.565 64.6
130.633 64.4
130.703 64.2
130.773 64
130.842 63.8
130.911 63.6
130.982 63.4
131.054 63.2
131.125 63
131.196 62.8
131.269 62.6
131.340 62.4
131.412 62.2
131.486 62
131.560 61.8
131.637 61.6
131.713 61.4
131.787 61.2
131.864 61
131.941 60.8
132.014 60.6
132.082 60.4
132.154 60.2
132.232 60
132.306 59.8
132.381 59.6
132.461 59.4
132.540 59.2
132.618 59
132.697 58.8
132.780 58.6
132.859 58.4
132.935 58.2
133.014 58
133.096 57.8
133.177 57.6
133.255 57.4
133.333 57.2
133.415 57
133.502 56.8
133.583 56.6
133.663 56.4
133.745 56.2
133.828 56
133.912 55.8
134.000 55.6
134.089 55.4
134.175 55.2
134.261 55
134.349 54.8
134.439 54.6
134.525 54.4
134.612 54.2
134.702 54
134.791 53.8
134.875 53.6
134.963 53.4
135.053 53.2
135.145 53
135.238 52.8
135.331 52.6
135.428 52.4
135.526 52.2
135.626 52
135.719 51.8
135.806 51.6
135.895 51.4
135.985 51.2
136.079 51
136.179 50.8
136.280 50.6
136.374 50.4
136.465 50.2
136.566 50
136.671 49.8
136.770 49.6
136.868 49.4
136.972 49.2
137.076 49
137.179 48.8
137.280 48.6
137.381 48.4
137.489 48.2
137.595 48
137.696 47.8
137.801 47.6
137.904 47.4
138.011 47.2
138.122 47
138.226 46.8
138.330 46.6
138.442 46.4
138.557 46.2
138.669 46
138.782 45.8
138.894 45.6
139.005 45.4
139.113 45.2
139.225 45
139.344 44.8
139.467 44.6
139.592 44.4
139.707 44.2
139.817 44
139.934 43.8
140.060 43.6
140.185 43.4
140.302 43.2
140.421 43
140.546 42.8
140.669 42.6
140.794 42.4
140.920 42.2
141.044 42
141.167 41.8
141.295 41.6
141.429 41.4
141.558 41.2
141.687 41
141.817 40.8
141.948 40.6
142.082 40.4
142.221 40.2
142.359 40
142.496 39.8
142.639 39.6
142.785 39.4
142.924 39.2
143.059 39
143.195 38.8
143.333 38.6
143.473 38.4
143.620 38.2
143.772 38
143.922 37.8
144.072 37.6
144.224 37.4
144.376 37.2
144.530 37
144.681 36.8
144.832 36.6
144.994 36.4
145.158 36.2
145.313 36
145.470 35.8
145.638 35.6
145.802 35.4
145.954 35.2
146.111 35
146.270 34.8
146.427 34.6
146.599 34.4
146.784 34.2
146.965 34
147.139 33.8
147.313 33.6
147.483 33.4
147.661 33.2
147.841 33
148.016 32.8
148.193 32.6
148.372 32.4
148.566 32.2
148.765 32
148.954 31.8
149.135 31.6
149.327 31.4
149.526 31.2
149.722 31
149.914 30.8
150.109 30.6
150.312 30.4
150.516 30.2
150.724 30
150.824 29.9
150.934 29.8
151.053 29.7
151.166 29.6
151.280 29.5
151.384 29.4
151.488 29.3
151.596 29.2
151.702 29.1
151.812 29
151.925 28.9
152.043 28.8
152.153 28.7
152.248 28.6
152.356 28.5
152.466 28.4
152.575 28.3
152.688 28.2
152.803 28.1
152.913 28
153.017 27.9
153.134 27.8
153.262 27.7
153.380 27.6
153.496 27.5
153.616 27.4
153.741 27.3
153.867 27.2
153.985 27.1
154.101 27
154.222 26.9
154.351 26.8
154.478 26.7
154.596 26.6
154.715 26.5
154.844 26.4
154.975 26.3
155.100 26.2
155.225 26.1
155.357 26
155.488 25.9
155.620 25.8
155.740 25.7
155.859 25.6
155.996 25.5
156.143 25.4
156.283 25.3
156.416 25.2
156.555 25.1
156.688 25
156.821 24.9
156.955 24.8
157.072 24.7
157.207 24.6
157.367 24.5
157.523 24.4
157.674 24.3
157.831 24.2
157.973 24.1
158.101 24
158.239 23.9
158.389 23.8
158.546 23.7
158.694 23.6
158.832 23.5
158.977 23.4
159.129 23.3
159.283 23.2
159.425 23.1
159.570 23
159.740 22.9
159.908 22.8
160.060 22.7
160.209 22.6
160.373 22.5
160.547 22.4
160.713 22.3
160.875 22.2
161.034 22.1
161.192 22
161.359 21.9
161.524 21.8
161.693 21.7
161.870 21.6
162.047 21.5
162.223 21.4
162.402 21.3
162.583 21.2
162.767 21.1
162.947 21
163.126 20.9
163.305 20.8
163.484 20.7
163.665 20.6
163.858 20.5
164.052 20.4
164.231 20.3
164.415 20.2
164.614 20.1
164.823 20
165.014 19.9
165.200 19.8
165.399 19.7
165.599 19.6
165.803 19.5
166.004 19.4
166.208 19.3
166.413 19.2
166.616 19.1
166.829 19
167.041 18.9
167.250 18.8
167.454 18.7
167.660 18.6
167.880 18.5
168.107 18.4
168.335 18.3
168.566 18.2
168.822 18.1
169.075 18
169.284 17.9
169.488 17.8
169.712 17.7
169.946 17.6
170.187 17.5
170.435 17.4
170.685 17.3
170.939 17.2
171.201 17.1
171.469 17
171.735 16.9
171.999 16.8
172.257 16.7
172.495 16.6
172.721 16.5
172.976 16.4
173.271 16.3
173.569 16.2
173.851 16.1
174.121 16
174.388 15.9
174.668 15.8
174.962 15.7
175.251 15.6
175.530 15.5
175.822 15.4
176.124 15.3
176.417 15.2
176.711 15.1
177.020 15
177.347 14.9
177.685 14.8
178.003 14.7
178.312 14.6
178.637 14.5
178.973 14.4
179.303 14.3
179.617 14.2
179.940 14.1
180.296 14
180.658 13.9
181.011 13.8
181.367 13.7
181.725 13.6
182.090 13.5
182.451 13.4
182.816 13.3
183.208 13.2
183.603 13.1
183.988 13
184.376 12.9
184.775 12.8
185.188 12.7
185.605 12.6
186.015 12.5
186.421 12.4
186.834 12.3
187.269 12.2
187.714 12.1
188.157 12
188.615 11.9
189.069 11.8
189.518 11.7
189.980 11.6
190.460 11.5
190.942 11.4
191.429 11.3
191.924 11.2
192.423 11.1
192.932 11
193.460 10.9
193.991 10.8
194.530 10.7
195.080 10.6
195.627 10.5
196.248 10.4
196.878 10.3
197.429 10.2
198.033 10.1
198.626 10
199.235 9.9
199.864 9.8
200.504 9.7
201.131 9.6
201.773 9.5
202.441 9.4
203.125 9.3
203.830 9.2
204.552 9.1
205.272 9
206.017 8.9
206.797 8.8
207.562 8.7
208.325 8.6
209.114 8.5
209.936 8.4
210.773 8.3
211.614 8.2
212.487 8.1
213.360 8
213.533 7.98
213.706 7.96
213.891 7.94
214.079 7.92
214.260 7.9
214.446 7.88
214.641 7.86
214.829 7.84
215.004 7.82
215.183 7.8
215.375 7.78
215.566 7.76
215.762 7.74
215.948 7.72
216.131 7.7
216.329 7.68
216.537 7.66
216.744 7.64
216.942 7.62
217.138 7.6
217.337 7.58
217.530 7.56
217.721 7.54
217.913 7.52
218.112 7.5
218.312 7.48
218.504 7.46
218.724 7.44
218.942 7.42
219.153 7.4
219.381 7.38
219.601 7.36
219.814 7.34
220.037 7.32
220.265 7.3
220.485 7.28
220.704 7.26
220.920 7.24
221.139 7.22
221.369 7.2
221.592 7.18
221.810 7.16
222.020 7.14
222.227 7.12
222.448 7.1
222.674 7.08
222.885 7.06
223.098 7.04
223.306 7.02
223.514 7
223.739 6.98
223.951 6.96
224.169 6.94
224.411 6.92
224.658 6.9
224.947 6.88
225.214 6.86
225.440 6.84
225.680 6.82
225.918 6.8
226.160 6.78
226.386 6.76
226.609 6.74
226.843 6.72
227.075 6.7
227.303 6.68
227.578 6.66
227.889 6.64
228.165 6.62
228.426 6.6
228.700 6.58
228.970 6.56
229.233 6.54
229.538 6.52
229.836 6.5
230.088 6.48
230.325 6.46
230.549 6.44
230.783 6.42
231.040 6.4
231.321 6.38
231.602 6.36
231.879 6.34
232.166 6.32
232.449 6.3
232.730 6.28
233.014 6.26
233.293 6.24
233.568 6.22
233.843 6.2
234.116 6.18
234.375 6.16
234.617 6.14
234.844 6.12
235.076 6.1
235.368 6.08
235.740 6.06
236.127 6.04
236.453 6.02
236.738 6
237.031 5.98
237.342 5.96
237.658 5.94
237.976 5.92
238.293 5.9
238.605 5.88
238.921 5.86
239.237 5.84
239.544 5.82
239.850 5.8
240.164 5.78
240.486 5.76
240.805 5.74
241.138 5.72
241.512 5.7
241.886 5.68
242.226 5.66
242.520 5.64
242.754 5.62
243.025 5.6
243.417 5.58
243.837 5.56
244.211 5.54
244.572 5.52
244.936 5.5
245.278 5.48
245.582 5.46
245.876 5.44
246.216 5.42
246.640 5.4
247.068 5.38
247.445 5.36
247.816 5.34
248.188 5.32
248.570 5.3
248.964 5.28
249.365 5.26
249.772 5.24
250.177 5.22
250.567 5.2
250.918 5.18
251.263 5.16
251.671 5.14
252.125 5.12
252.560 5.1
252.970 5.08
253.377 5.06
253.789 5.04
254.205 5.02
254.632 5
255.073 4.98
255.513 4.96
255.934 4.94
256.357 4.92
256.797 4.9
257.243 4.88
257.688 4.86
258.118 4.84
258.534 4.82
258.957 4.8
259.408 4.78
259.903 4.76
260.412 4.74
260.898 4.72
261.371 4.7
261.838 4.68
262.309 4.66
262.790 4.64
263.286 4.62
263.805 4.6
264.317 4.58
264.823 4.56
265.330 4.54
265.842 4.52
266.368 4.5
266.891 4.48
267.415 4.46
267.933 4.44
268.451 4.42
268.977 4.4
269.521 4.38
270.088 4.36
270.654 4.34
271.172 4.32
271.669 4.3
272.244 4.28
272.875 4.26
273.468 4.24
274.040 4.22
274.635 4.2
275.235 4.18
275.806 4.16
276.388 4.14
276.964 4.12
277.481 4.1
278.007 4.08
278.613 4.06
279.304 4.04
280.006 4.02
280.698 4
281.411 3.98
282.104 3.96
282.799 3.94
283.494 3.92
284.078 3.9
284.582 3.88
285.166 3.86
285.852 3.84
286.578 3.82
287.292 3.8
287.974 3.78
288.683 3.76
289.409 3.74
290.111 3.72
290.842 3.7
291.693 3.68
292.643 3.66
293.592 3.64
294.530 3.62
295.405 3.6
296.193 3.58
296.980 3.56
297.746 3.54
298.543 3.52
299.381 3.5
300.187 3.48
301.017 3.46
301.877 3.44
302.735 3.42
303.589 3.4
304.460 3.38
305.352 3.36
306.253 3.34
307.164 3.32
308.081 3.3
309.009 3.28
309.977 3.26
311.028 3.24
312.127 3.22
313.196 3.2
314.206 3.18
315.516 3.16
316.831 3.14
317.827 3.12
318.830 3.1
319.848 3.08
320.823 3.06
321.649 3.04
322.242 3.02
322.677 3
323.096 2.98
323.528 2.96
323.961 2.94
324.405 2.92
324.693 2.9
325.720 2.88
328.578 2.86
332.097 2.84
334.793 2.82
336.666 2.8
338.202 2.78
339.709 2.76
341.203 2.74
342.720 2.72
344.269 2.7
345.784 2.68
347.425 2.66
349.079 2.64
350.573 2.62
352.058 2.6
353.588 2.58
355.164 2.56
356.744 2.54
358.322 2.52
360.101 2.5
361.912 2.48
363.527 2.46
365.105 2.44
366.814 2.42
368.444 2.4
369.968 2.38
371.942 2.36
374.176 2.34
376.335 2.32
378.765 2.3
381.321 2.28
383.402 2.26
384.999 2.24
386.688 2.22
388.708 2.2
390.839 2.18
393.142 2.16
395.517 2.14
397.876 2.12
400.385 2.1
402.905 2.08
405.435 2.06
407.940 2.04
410.629 2.02
413.347 2
414.648 1.99
415.960 1.98
417.330 1.97
418.746 1.96
420.193 1.95
421.674 1.94
423.184 1.93
424.696 1.92
426.181 1.91
427.662 1.9
429.168 1.89
430.729 1.88
432.326 1.87
433.949 1.86
435.592 1.85
437.221 1.84
438.852 1.83
440.494 1.82
442.172 1.81
443.893 1.8
445.647 1.79
447.416 1.78
449.186 1.77
450.985 1.76
452.821 1.75
454.698 1.74
456.588 1.73
458.481 1.72
460.388 1.71
462.326 1.7
464.312 1.69
466.331 1.68
468.363 1.67
470.392 1.66
472.433 1.65
474.524 1.64
476.678 1.63
478.893 1.62
481.148 1.61
483.426 1.6
485.720 1.59
488.033 1.58
490.369 1.57
492.713 1.56
495.069 1.55
497.468 1.54
499.939 1.53
502.487 1.52
505.093 1.51
507.720 1.5
510.338 1.49
512.955 1.48
515.615 1.47
518.354 1.46
521.178 1.45
524.067 1.44
526.996 1.43
529.948 1.42
532.934 1.41
535.975 1.4
539.094 1.39
542.285 1.38
545.531 1.37
548.822 1.36
552.156 1.35
555.542 1.34
559.000 1.33
562.544 1.32
566.163 1.31
569.837 1.3
573.556 1.29
577.322 1.28
581.152 1.27
585.068 1.26
589.086 1.25
593.216 1.24
597.435 1.23
601.733 1.22
606.122 1.21
610.611 1.2
615.191 1.19
619.842 1.18
624.559 1.17
629.333 1.16
634.205 1.15
639.230 1.14
644.426 1.13
649.770 1.12
655.251 1.11
660.869 1.1
666.597 1.09
672.405 1.08
678.275 1.07
684.204 1.06
690.260 1.05
696.533 1.04
703.055 1.03
709.794 1.02
716.663 1.01
723.611 1
730.667 0.99
737.917 0.98
745.423 0.97
753.188 0.96
761.209 0.95
769.457 0.94
777.910 0.93
786.576 0.92
795.482 0.91
804.618 0.9
813.994 0.89
823.798 0.88
834.034 0.87
844.586 0.86
855.252 0.85
865.934 0.84
876.832 0.83
888.247 0.82
900.424 0.81
913.233 0.8
914.538 0.799
915.848 0.798
917.162 0.797
918.479 0.796
919.801 0.795
921.126 0.794
922.455 0.793
923.786 0.792
925.121 0.791
926.457 0.79
927.796 0.789
929.137 0.788
930.480 0.787
931.824 0.786
933.171 0.785
934.520 0.784
935.870 0.783
937.226 0.782
938.585 0.781
939.943 0.78
941.304 0.779
942.668 0.778
944.035 0.777
945.406 0.776
946.782 0.775
948.162 0.774
949.546 0.773
950.935 0.772
952.328 0.771
953.725 0.77
955.127 0.769
956.535 0.768
957.948 0.767
959.366 0.766
960.791 0.765
962.223 0.764
963.660 0.763
965.104 0.762
966.553 0.761
968.007 0.76
969.469 0.759
970.936 0.758
972.410 0.757
973.890 0.756
975.377 0.755
976.871 0.754
978.371 0.753
979.875 0.752
981.385 0.751
982.899 0.75
984.418 0.749
985.943 0.748
987.474 0.747
989.010 0.746
990.551 0.745
992.097 0.744
993.651 0.743
995.210 0.742
996.775 0.741
998.346 0.74
999.923 0.739
1001.505 0.738
1003.092 0.737
1004.684 0.736
1006.282 0.735
1007.885 0.734
1009.493 0.733
1011.107 0.732
1012.726 0.731
1014.350 0.73
1015.981 0.729
1017.617 0.728
1019.260 0.727
1020.908 0.726
1022.562 0.725
1024.223 0.724
1025.889 0.723
1027.561 0.722
1029.240 0.721
1030.926 0.72
1032.618 0.719
1034.317 0.718
1036.023 0.717
1037.735 0.716
1039.455 0.715
1041.181 0.714
1042.914 0.713
1044.654 0.712
1046.401 0.711
1048.156 0.71
1049.917 0.709
1051.687 0.708
1053.466 0.707
1055.252 0.706
1057.043 0.705
1058.841 0.704
1060.647 0.703
1062.460 0.702
1064.279 0.701
1066.107 0.7
1067.943 0.699
1069.787 0.698
1071.639 0.697
1073.498 0.696
1075.365 0.695
1077.241 0.694
1079.124 0.693
1081.016 0.692
1082.916 0.691
1084.826 0.69
1086.745 0.689
1088.672 0.688
1090.607 0.687
1092.550 0.686
1094.500 0.685
1096.459 0.684
1098.425 0.683
1100.399 0.682
1102.377 0.681
1104.359 0.68
1106.351 0.679
1108.350 0.678
1110.356 0.677
1112.369 0.676
1114.390 0.675
1116.420 0.674
1118.457 0.673
1120.501 0.672
1122.553 0.671
1124.611 0.67
1126.675 0.669
1128.748 0.668
1130.832 0.667
1132.928 0.666
1135.035 0.665
1137.153 0.664
1139.279 0.663
1141.406 0.662
1143.533 0.661
1145.670 0.66
1147.829 0.659
1150.008 0.658
1152.203 0.657
1154.411 0.656
1156.631 0.655
1158.860 0.654
1161.095 0.653
1163.336 0.652
1165.583 0.651
1167.835 0.65
1170.093 0.649
1172.356 0.648
1174.622 0.647
1176.894 0.646
1179.174 0.645
1181.463 0.644
1183.760 0.643
1186.066 0.642
1188.381 0.641
1190.707 0.64
1193.043 0.639
1195.391 0.638
1197.752 0.637
1200.125 0.636
1202.513 0.635
1204.913 0.634
1207.319 0.633
1209.727 0.632
1212.149 0.631
1214.604 0.63
1217.095 0.629
1219.614 0.628
1222.158 0.627
1224.723 0.626
1227.301 0.625
1229.892 0.624
1232.492 0.623
1235.102 0.622
1237.719 0.621
1240.344 0.62
1242.974 0.619
1245.608 0.618
1248.247 0.617
1250.890 0.616
1253.538 0.615
1256.191 0.614
1258.849 0.613
1261.513 0.612
1264.184 0.611
1266.865 0.61
1269.553 0.609
1272.243 0.608
1274.940 0.607
1277.642 0.606
1280.350 0.605
1283.068 0.604
1285.794 0.603
1288.531 0.602
1291.278 0.601
1294.035 0.6
1296.802 0.599
1299.579 0.598
1302.366 0.597
1305.162 0.596
1307.969 0.595
1310.786 0.594
1313.615 0.593
1316.454 0.592
1319.304 0.591
1322.164 0.59
1325.032 0.589
1327.908 0.588
1330.794 0.587
1333.689 0.586
1336.590 0.585
1339.500 0.584
1342.417 0.583
1345.342 0.582
1348.274 0.581
1351.215 0.58
1354.164 0.579
1357.121 0.578
1360.086 0.577
1363.060 0.576
1366.045 0.575
1369.040 0.574
1372.047 0.573
1375.067 0.572
1378.099 0.571
1381.145 0.57
1384.211 0.569
1387.302 0.568
1390.417 0.567
1393.550 0.566
1396.701 0.565
1399.872 0.564
1403.062 0.563
1406.273 0.562
1409.526 0.561
1412.839 0.56
1416.203 0.559
1419.595 0.558
1423.010 0.557
1426.447 0.556
1429.907 0.555
1433.388 0.554
1436.892 0.553
1440.416 0.552
1443.958 0.551
1447.520 0.55
1451.108 0.549
1454.725 0.548
1458.371 0.547
1462.049 0.546
1465.750 0.545
1469.474 0.544
1473.225 0.543
1477.002 0.542
1480.805 0.541
1484.635 0.54
1488.491 0.539
1492.375 0.538
1496.287 0.537
1500.228 0.536
1504.200 0.535
1508.206 0.534
1512.249 0.533
1516.352 0.532
1520.541 0.531
1524.806 0.53
1529.116 0.529
1533.460 0.528
1537.841 0.527
1542.254 0.526
1546.701 0.525
1551.184 0.524
1555.696 0.523
1560.231 0.522
1564.791 0.521
1569.378 0.52
1573.991 0.519
1578.630 0.518
1583.294 0.517
1587.980 0.516
1592.688 0.515
1597.417 0.514
1602.166 0.513
1606.934 0.512
1611.721 0.511
1616.527 0.51
1621.347 0.509
1626.183 0.508
1631.040 0.507
1635.914 0.506
1640.806 0.505
1645.716 0.504
1650.645 0.503
1655.595 0.502
1660.562 0.501
1665.549 0.5
1670.564 0.499
1675.601 0.498
1680.648 0.497
1685.708 0.496
1690.779 0.495
1695.865 0.494
1700.969 0.493
1706.092 0.492
1711.235 0.491
1716.402 0.49
1721.594 0.489
